Measured Diameter [µm] - Detected	Intensity - Detected	Measured Diameter [µm] - Isolated	Intensity - Isolated
0.00	0.00	0.00	0.00
0.00	0.00	31.26	229.20
0.00	0.00	34.63	230.52
0.00	0.00	36.99	229.72
0.00	0.00	47.98	234.05
0.00	0.00	51.15	221.86
0.00	0.00	37.06	234.00
0.00	0.00	39.51	225.74
0.00	0.00	39.71	233.58
0.00	0.00	34.36	233.39
0.00	0.00	38.02	224.47
0.00	0.00	33.72	233.12
0.00	0.00	38.15	233.44
0.00	0.00	39.72	215.87
0.00	0.00	35.99	222.30
0.00	0.00	39.33	126.80
0.00	0.00	38.58	224.18
0.00	0.00	26.81	186.38
0.00	0.00	35.29	205.04
0.00	0.00	48.53	230.24
0.00	0.00	38.57	230.50
0.00	0.00	37.86	229.07
0.00	0.00	34.55	230.93
0.00	0.00	36.34	231.37
0.00	0.00	37.12	229.80
0.00	0.00	37.57	230.67
0.00	0.00	46.11	232.47
0.00	0.00	34.72	234.35
0.00	0.00	42.24	234.21
0.00	0.00	36.54	228.23
0.00	0.00	35.67	233.98
0.00	0.00	33.94	234.64
0.00	0.00	46.14	207.06
0.00	0.00	39.95	233.78
0.00	0.00	36.12	235.90
0.00	0.00	31.25	218.09
0.00	0.00	37.01	232.68
0.00	0.00	31.89	223.99
0.00	0.00	39.63	202.31
0.00	0.00	31.44	222.08
0.00	0.00	43.36	233.36
0.00	0.00	42.09	231.60
0.00	0.00	38.17	214.33
0.00	0.00	33.49	229.01
0.00	0.00	38.74	228.16
0.00	0.00	38.31	233.30
0.00	0.00	41.03	231.91
0.00	0.00	32.97	210.11
0.00	0.00	37.13	230.89
0.00	0.00	34.21	231.39
0.00	0.00	35.28	204.11
0.00	0.00	30.68	229.88
0.00	0.00	34.12	233.16
0.00	0.00	37.18	232.76
0.00	0.00	37.30	229.30
0.00	0.00	32.76	226.98
0.00	0.00	36.24	235.28
0.00	0.00	40.92	228.08
0.00	0.00	39.21	232.56
0.00	0.00	33.83	230.58
0.00	0.00	37.69	210.48
0.00	0.00	33.35	209.93
0.00	0.00	33.00	225.02
0.00	0.00	32.78	232.44
0.00	0.00	36.69	229.07
0.00	0.00	39.52	233.88
0.00	0.00	37.58	231.46
0.00	0.00	38.45	231.15
0.00	0.00	34.31	231.94
0.00	0.00	36.31	233.44
0.00	0.00	37.67	230.16
0.00	0.00	38.23	234.08
0.00	0.00	30.06	186.78
0.00	0.00	35.17	227.32
0.00	0.00	36.96	231.50
0.00	0.00	35.11	233.30
0.00	0.00	38.92	232.70
0.00	0.00	38.43	231.67
0.00	0.00	42.74	223.25
0.00	0.00	35.71	233.57
0.00	0.00	33.70	232.24
0.00	0.00	50.22	226.58
0.00	0.00	36.04	229.79
0.00	0.00	45.27	212.47
0.00	0.00	35.23	223.87
0.00	0.00	35.25	218.02
0.00	0.00	33.04	230.69
0.00	0.00	33.45	224.18
0.00	0.00	43.15	233.15
0.00	0.00	43.80	206.86
0.00	0.00	32.25	226.93
0.00	0.00	31.37	205.30
0.00	0.00	30.71	221.15
0.00	0.00	41.23	232.26
0.00	0.00	32.57	225.34
0.00	0.00	36.62	232.10
0.00	0.00	30.06	213.46
0.00	0.00	38.45	231.15
0.00	0.00	34.86	231.90
0.00	0.00	34.37	223.49
0.00	0.00	33.90	222.83
0.00	0.00	40.31	201.83
0.00	0.00	29.82	207.09
0.00	0.00	43.73	225.33
0.00	0.00	31.00	222.63
0.00	0.00	41.94	220.36
0.00	0.00	29.75	228.89
0.00	0.00	30.43	218.21
0.00	0.00	34.85	232.94
0.00	0.00	32.77	232.80
0.00	0.00	34.10	228.06
0.00	0.00	29.04	220.24
0.00	0.00	31.38	205.63
0.00	0.00	32.21	219.80
0.00	0.00	36.93	218.32
0.00	0.00	42.05	209.46
0.00	0.00	33.06	232.14
0.00	0.00	30.70	209.17
0.00	0.00	33.15	226.22
0.00	0.00	30.44	207.58
0.00	0.00	34.71	233.99
0.00	0.00	35.85	231.26
0.00	0.00	39.43	230.13
0.00	0.00	29.03	207.57
0.00	0.00	38.86	232.76
0.00	0.00	36.43	232.86
0.00	0.00	33.72	224.40
0.00	0.00	37.63	225.78
0.00	0.00	34.33	232.81
0.00	0.00	38.29	220.88
0.00	0.00	33.86	208.03
0.00	0.00	32.67	228.77
0.00	0.00	33.07	220.86
0.00	0.00	33.53	219.39
0.00	0.00	28.99	221.67
0.00	0.00	31.44	224.79
0.00	0.00	34.99	216.49
0.00	0.00	34.34	227.57
0.00	0.00	31.80	215.06
0.00	0.00	26.94	196.95
0.00	0.00	38.19	221.74
0.00	0.00	33.29	212.06
0.00	0.00	30.16	204.84
0.00	0.00	36.42	225.78
0.00	0.00	32.53	222.91
