Measured Diameter [µm] - Detected	Intensity - Detected	Measured Diameter [µm] - Isolated	Intensity - Isolated
0.00	0.00	0.00	0.00
15.69	52.92	28.43	83.08
25.13	52.02	32.77	141.05
20.58	40.36	28.18	144.95
25.66	55.58	37.52	166.92
15.08	42.47	28.73	97.40
18.90	54.01	28.71	168.09
15.82	36.40	31.89	155.01
20.30	48.24	31.56	171.27
17.15	42.18	34.52	116.33
16.84	40.87	26.08	175.05
16.11	35.77	35.23	115.88
20.96	65.58	33.89	119.69
19.87	47.75	28.55	125.34
17.43	44.15	34.01	155.66
22.01	60.08	36.59	160.12
19.28	40.81	28.46	170.21
17.18	30.81	43.46	146.47
16.22	42.82	24.35	122.83
20.76	42.16	34.61	167.83
23.25	58.13	36.16	190.46
31.55	69.16	35.32	82.49
24.60	78.08	27.99	97.17
23.44	76.94	28.78	102.96
16.44	39.71	28.35	101.82
33.58	75.49	27.03	117.23
29.29	54.33	29.90	171.21
21.21	73.69	36.36	120.98
20.27	40.50	38.51	205.64
22.24	60.72	27.34	93.88
16.24	41.49	28.70	80.71
19.77	44.87	28.19	98.23
18.82	46.65	39.31	127.55
29.32	62.69	30.64	139.59
20.08	50.70	34.51	192.99
20.60	56.03	42.95	111.72
25.25	56.37	38.46	179.24
16.39	39.66	28.67	173.98
24.10	70.92	45.08	174.01
20.42	52.18	36.71	179.87
22.30	59.85	29.21	146.33
29.03	58.37	26.55	117.42
16.81	36.31	27.65	151.20
26.91	74.37	31.57	94.88
15.26	34.17	44.67	84.13
20.60	45.26	37.49	182.97
26.76	62.67	43.94	206.95
30.63	49.03	39.29	198.71
23.97	40.50	34.54	137.42
15.55	43.37	28.70	134.64
19.39	39.97	26.39	191.47
22.19	52.01	33.17	187.03
23.19	68.07	31.24	130.17
21.70	51.11	25.04	102.93
35.33	61.44	27.97	143.66
17.48	35.37	38.34	175.47
25.46	55.65	27.79	164.22
17.43	36.28	28.21	110.67
20.70	54.67	26.41	105.21
25.76	57.20	35.57	204.97
26.21	74.49	30.12	212.18
21.91	40.99	31.05	188.37
25.49	50.85	26.24	140.99
27.35	69.02	26.69	192.03
20.61	62.18	24.76	169.55
20.69	60.45	46.72	163.72
25.25	63.86	33.67	133.46
15.18	39.00	38.07	200.53
16.92	41.52	24.63	165.10
22.77	55.13	38.05	197.29
21.32	39.20	30.19	127.85
33.24	57.31	27.68	89.36
15.40	34.52	32.32	154.68
21.53	55.83	29.01	131.32
17.70	41.27	25.79	129.24
25.01	78.46	42.74	129.49
21.51	74.08	34.20	196.99
20.02	37.99	37.80	172.21
26.40	58.65	23.25	86.78
15.47	35.35	31.61	181.29
26.59	52.31	27.59	179.08
19.45	36.36	26.61	92.88
30.54	47.97	23.64	88.48
29.48	54.66	34.85	91.90
15.06	56.45	28.62	124.38
26.04	47.29	31.07	134.19
45.57	72.11	44.90	149.68
46.26	78.58	37.03	202.85
22.70	61.44	28.54	150.33
25.43	39.94	44.17	185.06
16.83	49.37	26.87	115.81
26.33	60.57	38.47	135.34
24.89	71.57	30.37	120.00
25.29	43.39	45.27	158.74
32.53	67.46	30.85	162.34
19.10	54.86	42.81	192.94
16.39	49.71	25.66	89.91
15.22	40.08	0.00	0.00
22.06	69.45	0.00	0.00
20.86	41.84	0.00	0.00
25.00	78.67	0.00	0.00
17.97	67.39	0.00	0.00
28.81	79.42	0.00	0.00
80.11	189.15	0.00	0.00
18.80	51.19	0.00	0.00
17.70	38.13	0.00	0.00
21.93	57.38	0.00	0.00
20.66	41.86	0.00	0.00
20.80	41.91	0.00	0.00
32.87	46.66	0.00	0.00
19.82	42.34	0.00	0.00
21.15	38.84	0.00	0.00
31.13	67.99	0.00	0.00
22.44	75.60	0.00	0.00
20.64	75.10	0.00	0.00
23.46	49.86	0.00	0.00
24.53	40.27	0.00	0.00
22.74	39.26	0.00	0.00
22.59	67.30	0.00	0.00
16.66	39.70	0.00	0.00
22.19	75.76	0.00	0.00
19.71	41.98	0.00	0.00
23.97	60.79	0.00	0.00
23.65	58.61	0.00	0.00
15.53	42.52	0.00	0.00
26.31	77.69	0.00	0.00
19.59	45.48	0.00	0.00
19.77	46.80	0.00	0.00
15.92	35.92	0.00	0.00
16.46	41.08	0.00	0.00
23.86	58.19	0.00	0.00
20.75	42.83	0.00	0.00
18.88	51.59	0.00	0.00
29.18	75.09	0.00	0.00
17.96	45.98	0.00	0.00
22.25	60.01	0.00	0.00
26.68	45.54	0.00	0.00
16.81	56.34	0.00	0.00
33.86	70.53	0.00	0.00
28.21	74.47	0.00	0.00
19.23	64.98	0.00	0.00
23.71	42.76	0.00	0.00
25.35	65.25	0.00	0.00
34.61	77.45	0.00	0.00
15.36	28.40	0.00	0.00
82.82	177.77	0.00	0.00
21.14	43.29	0.00	0.00
